's16ho006.cg1' 'Dec  1 2010 03:35' 'I'         30.    2  'TIME'   64  'RAW'
  Filename         Date            Scan       Mon    Prf  Base   #pts  Type
s16ho pt nafion in 0p1 m h2so4 potential is 1p125 
 460    1  500  512 608 512   0   5.0010     0.00000 0.00000   0.00000    1
 Collimation      Mosaic    Wavelength   T-Start   Incr.   H-field #Det    
  1       1.60000    0.01600    2.60800
  2       1.60000    0.01600    2.60800
  3       4.00000    0.04000    6.52000
  4       8.00000    0.08000   13.04000
  5       4.80000    0.04800    7.82400
  6       6.40000    0.06400   10.43200
 Mot:    Start       Step      End
     A1         A2         A3         A4       MIN      MONITOR      COUNTS 
      1.600      1.600      4.000      8.000    1.00      109563         217
      1.616      1.616      4.040      8.080    1.00      111229         204
      1.632      1.632      4.080      8.160    1.00      112091         218
      1.648      1.648      4.120      8.240    1.00      112974         230
      1.664      1.664      4.160      8.320    1.00      114302         241
      1.680      1.680      4.200      8.400    1.00      114992         225
      1.696      1.696      4.240      8.480    1.00      116152         221
      1.712      1.712      4.280      8.560    1.00      117035         255
      1.728      1.728      4.320      8.640    1.00      117354         234
      1.744      1.744      4.360      8.720    1.00      118597         263
      1.760      1.760      4.400      8.800    1.00      119608         303
      1.776      1.776      4.440      8.880    1.00      121002         248
      1.792      1.792      4.480      8.960    1.00      122003         285
      1.808      1.808      4.520      9.040    1.00      122823         268
      1.824      1.824      4.560      9.120    1.00      123933         305
      1.840      1.840      4.600      9.200    1.00      125292         322
      1.856      1.856      4.640      9.280    1.00      125201         347
      1.872      1.872      4.680      9.360    1.00      126344         334
      1.888      1.888      4.720      9.440    1.00      127961         314
      1.904      1.904      4.760      9.520    1.00      128750         319
      1.920      1.920      4.800      9.600    1.00      129475         363
      1.936      1.936      4.840      9.680    1.00      129760         358
      1.952      1.952      4.880      9.760    1.00      131787         368
      1.968      1.968      4.920      9.840    1.00      133188         375
      1.984      1.984      4.960      9.920    1.00      133219         386
      2.000      2.000      5.000     10.000    1.00      134412         373
      2.016      2.016      5.040     10.080    1.00      135185         417
      2.032      2.032      5.080     10.160    1.00      136281         385
      2.048      2.048      5.120     10.240    1.00      137282         393
      2.064      2.064      5.160     10.320    1.00      138750         410
      2.080      2.080      5.200     10.400    1.00      138683         396
      2.096      2.096      5.240     10.480    1.00      139971         412
      2.112      2.112      5.280     10.560    1.00      141649         436
      2.128      2.128      5.320     10.640    1.00      142337         438
      2.144      2.144      5.360     10.720    1.00      143346         474
      2.160      2.160      5.400     10.800    1.00      144651         425
      2.176      2.176      5.440     10.880    1.00      144971         497
      2.192      2.192      5.480     10.960    1.00      145937         464
      2.208      2.208      5.520     11.040    1.00      146848         488
      2.224      2.224      5.560     11.120    1.00      148452         461
      2.240      2.240      5.600     11.200    1.00      148936         544
      2.256      2.256      5.640     11.280    1.00      149257         500
      2.272      2.272      5.680     11.360    1.00      150437         493
      2.288      2.288      5.720     11.440    1.00      151340         490
      2.304      2.304      5.760     11.520    1.00      152737         495
      2.320      2.320      5.800     11.600    1.00      154179         620
      2.336      2.336      5.840     11.680    1.00      154105         517
      2.352      2.352      5.880     11.760    1.00      155608         579
      2.368      2.368      5.920     11.840    1.00      157280         582
      2.384      2.384      5.960     11.920    1.00      157292         569
      2.400      2.400      6.000     12.000    1.00      158418         579
      2.416      2.416      6.040     12.080    1.00      158937         630
      2.432      2.432      6.080     12.160    1.00      159715         631
      2.448      2.448      6.120     12.240    1.00      160887         651
      2.464      2.464      6.160     12.320    1.00      161396         637
      2.480      2.480      6.200     12.400    1.00      162456         613
      2.496      2.496      6.240     12.480    1.00      163420         674
      2.512      2.512      6.280     12.560    1.00      164795         667
      2.528      2.528      6.320     12.640    1.00      166173         721
      2.544      2.544      6.360     12.720    1.00      165869         705
      2.560      2.560      6.400     12.800    1.00      166612         700
      2.576      2.576      6.440     12.880    1.00      168391         744
      2.592      2.592      6.480     12.960    1.00      169192         753
      2.608      2.608      6.520     13.040    1.00      170951         751
