's47ho002.cg1' 'Nov 30 2010 12:59' 'I'         15.    2  'TIME'   51  'RAW'
  Filename         Date            Scan       Mon    Prf  Base   #pts  Type
s47ho pt nafion in 0p1 m h2so4 potential is 1p2 v 
 460    1  500  512 608 512   0   5.0010     0.00000 0.00000   0.00000    1
 Collimation      Mosaic    Wavelength   T-Start   Incr.   H-field #Det    
  1       0.05000    0.00000    0.05000
  2       0.05000    0.00000    0.05000
  3       0.00000    0.01000    0.50000
  4       0.00000    0.02000    1.00000
  5       0.60000    0.00000    0.60000
  6       0.80000    0.00000    0.80000
 Mot:    Start       Step      End
     A3         A4       MIN      MONITOR      COUNTS 
      0.000      0.000    0.50        7011         857
      0.010      0.020    0.50        6988         727
      0.020      0.040    0.50        7153         805
      0.030      0.060    0.50        7018         965
      0.040      0.080    0.50        6916        1231
      0.050      0.100    0.50        6891        1383
      0.060      0.120    0.50        6871        1428
      0.070      0.140    0.50        6837        1378
      0.080      0.160    0.50        7013        1352
      0.090      0.180    0.50        6943        1381
      0.100      0.200    0.50        6838        1375
      0.110      0.220    0.50        6923        1337
      0.120      0.240    0.50        7030        1228
      0.130      0.260    0.50        7035        1205
      0.140      0.280    0.50        6974        1128
      0.150      0.300    0.50        7070        1073
      0.160      0.320    0.50        7159        1003
      0.170      0.340    0.50        6895         902
      0.180      0.360    0.50        7010         889
      0.190      0.380    0.50        7049         858
      0.200      0.400    0.50        7096         816
      0.210      0.420    0.50        7089         770
      0.220      0.440    0.50        6969         696
      0.230      0.460    0.50        7057         638
      0.240      0.480    0.50        6802         612
      0.250      0.500    0.50        7060         639
      0.260      0.520    0.50        6902         557
      0.270      0.540    0.50        7132         558
      0.280      0.560    0.50        7105         540
      0.290      0.580    0.50        6977         518
      0.300      0.600    0.50        7076         543
      0.310      0.620    0.50        7022         532
      0.320      0.640    0.50        6957         513
      0.330      0.660    0.50        7071         411
      0.340      0.680    0.50        7052         409
      0.350      0.700    0.50        7227         382
      0.360      0.720    0.50        6997         358
      0.370      0.740    0.50        7086         356
      0.380      0.760    0.50        6998         322
      0.390      0.780    0.50        6958         329
      0.400      0.800    0.50        6933         311
      0.410      0.820    0.50        6974         295
      0.420      0.840    0.50        7065         287
      0.430      0.860    0.50        6902         272
      0.440      0.880    0.50        6986         275
      0.450      0.900    0.50        6960         247
      0.460      0.920    0.50        6889         248
      0.470      0.940    0.50        7182         238
      0.480      0.960    0.50        6949         209
      0.490      0.980    0.50        7086         203
      0.500      1.000    0.50        7004         199
