's47hn015.cg1' 'Nov 29 2010 20:05' 'I'         30.    2  'TIME'   51  'RAW'
  Filename         Date            Scan       Mon    Prf  Base   #pts  Type
s47hn pt nafion in 0p1 m h2so4 potential is 0p1 v 
 460    1  500  512 608 512   0   5.0010     0.00000 0.00000   0.00000    1
 Collimation      Mosaic    Wavelength   T-Start   Incr.   H-field #Det    
  1       0.80000    0.01600    1.60000
  2       0.80000    0.01600    1.60000
  3       2.00000    0.04000    4.00000
  4       4.00000    0.08000    8.00000
  5       2.40000    0.04800    4.80000
  6       3.20000    0.06400    6.40000
 Mot:    Start       Step      End
     A1         A2         A3         A4       MIN      MONITOR      COUNTS 
      0.800      0.800      2.000      4.000    1.00       60694         186
      0.816      0.816      2.040      4.080    1.00       62039         219
      0.832      0.832      2.080      4.160    1.00       63011         195
      0.848      0.848      2.120      4.240    1.00       63713         186
      0.864      0.864      2.160      4.320    1.00       65485         235
      0.880      0.880      2.200      4.400    1.00       65810         241
      0.896      0.896      2.240      4.480    1.00       67383         216
      0.912      0.912      2.280      4.560    1.00       68256         222
      0.928      0.928      2.320      4.640    1.00       69396         229
      0.944      0.944      2.360      4.720    1.00       69757         243
      0.960      0.960      2.400      4.800    1.00       71115         243
      0.976      0.976      2.440      4.880    1.00       71911         198
      0.992      0.992      2.480      4.960    1.00       72923         272
      1.008      1.008      2.520      5.040    1.00       74295         252
      1.024      1.024      2.560      5.120    1.00       74762         244
      1.040      1.040      2.600      5.200    1.00       75877         233
      1.056      1.056      2.640      5.280    1.00       76742         233
      1.072      1.072      2.680      5.360    1.00       77322         237
      1.088      1.088      2.720      5.440    1.00       78545         195
      1.104      1.104      2.760      5.520    1.00       79396         202
      1.120      1.120      2.800      5.600    1.00       81010         225
      1.136      1.136      2.840      5.680    1.00       80879         192
      1.152      1.152      2.880      5.760    1.00       82534         160
      1.168      1.168      2.920      5.840    1.00       83884         184
      1.184      1.184      2.960      5.920    1.00       84522         168
      1.200      1.200      3.000      6.000    1.00       85468         147
      1.216      1.216      3.040      6.080    1.00       86700         157
      1.232      1.232      3.080      6.160    1.00       87456         140
      1.248      1.248      3.120      6.240    1.00       88768         143
      1.264      1.264      3.160      6.320    1.00       89637         152
      1.280      1.280      3.200      6.400    1.00       90275         123
      1.296      1.296      3.240      6.480    1.00       90964         136
      1.312      1.312      3.280      6.560    1.00       92763         122
      1.328      1.328      3.320      6.640    1.00       92635         130
      1.344      1.344      3.360      6.720    1.00       94317         112
      1.360      1.360      3.400      6.800    1.00       94822         136
      1.376      1.376      3.440      6.880    1.00       95974         131
      1.392      1.392      3.480      6.960    1.00       97275         155
      1.408      1.408      3.520      7.040    1.00       98571         128
      1.424      1.424      3.560      7.120    1.00       99467         130
      1.440      1.440      3.600      7.200    1.00      100830         121
      1.456      1.456      3.640      7.280    1.00      101348         166
      1.472      1.472      3.680      7.360    1.00      102232         163
      1.488      1.488      3.720      7.440    1.00      103941         151
      1.504      1.504      3.760      7.520    1.00      104455         145
      1.520      1.520      3.800      7.600    1.00      105428         156
      1.536      1.536      3.840      7.680    1.00      106184         161
      1.552      1.552      3.880      7.760    1.00      106896         187
      1.568      1.568      3.920      7.840    1.00      108786         202
      1.584      1.584      3.960      7.920    1.00      109642         186
      1.600      1.600      4.000      8.000    1.00      109994         209
