's47hn032.cg1' 'Nov 30 2010 02:21' 'I'         60.    2  'TIME'   76  'RAW'
  Filename         Date            Scan       Mon    Prf  Base   #pts  Type
s47hn pt nafion in 0p1 m h2so4 potential is 0p1 v 
 460    1  500  512 608 512   0   5.0010     0.00000 0.00000   0.00000    1
 Collimation      Mosaic    Wavelength   T-Start   Incr.   H-field #Det    
  1       2.60000    0.00000    2.60000
  2       2.60000    0.00000    2.60000
  3       6.50000    0.04000    9.50000
  4      13.00000    0.08000   19.00000
  5       7.80000    0.00000    7.80000
  6      10.40000    0.00000   10.40000
 Mot:    Start       Step      End
     A3         A4       MIN      MONITOR      COUNTS 
      6.500     13.000    2.00      342405        1124
      6.540     13.080    2.00      342170        1099
      6.580     13.160    2.00      342632        1088
      6.620     13.240    2.00      342670        1068
      6.660     13.320    2.00      343426        1062
      6.700     13.400    2.00      342514        1105
      6.740     13.480    2.00      342654        1089
      6.780     13.560    2.00      342472        1074
      6.820     13.640    2.00      341728        1026
      6.860     13.720    2.00      343569        1141
      6.900     13.800    2.00      343094        1087
      6.940     13.880    2.00      342947        1031
      6.980     13.960    2.00      343895        1095
      7.020     14.040    2.00      342984        1091
      7.060     14.120    2.00      342465         995
      7.100     14.200    2.00      343758        1080
      7.140     14.280    2.00      343538         999
      7.180     14.360    2.00      342711        1007
      7.220     14.440    2.00      341857        1057
      7.260     14.520    2.00      341950        1051
      7.300     14.600    2.00      343083        1043
      7.340     14.680    2.00      342080        1115
      7.380     14.760    2.00      342007        1051
      7.420     14.840    2.00      340375        1035
      7.460     14.920    2.00      341368        1038
      7.500     15.000    2.00      341680        1074
      7.540     15.080    2.00      341516         977
      7.580     15.160    2.00      341534        1003
      7.620     15.240    2.00      342527        1014
      7.660     15.320    2.00      340820        1047
      7.700     15.400    2.00      342095        1035
      7.740     15.480    2.00      341265        1077
      7.780     15.560    2.00      341714         945
      7.820     15.640    2.00      340168        1022
      7.860     15.720    2.00      341752        1019
      7.900     15.800    2.00      342254         973
      7.940     15.880    2.00      341388        1028
      7.980     15.960    2.00      341656         997
      8.020     16.040    2.00      340803         983
      8.060     16.120    2.00      341928        1023
      8.100     16.200    2.00      341466         984
      8.140     16.280    2.00      341402         920
      8.180     16.360    2.00      341813        1019
      8.220     16.440    2.00      341828         983
      8.260     16.520    2.00      341380         953
      8.300     16.600    2.00      341861         925
      8.340     16.680    2.00      342211         911
      8.380     16.760    2.00      342621        1006
      8.420     16.840    2.00      340984         939
      8.460     16.920    2.00      341787         986
      8.500     17.000    2.00      341543         919
      8.540     17.080    2.00      342183         933
      8.580     17.160    2.00      342310         912
      8.620     17.240    2.00      340736         930
      8.660     17.320    2.00      341714         932
      8.700     17.400    2.00      342085         911
      8.740     17.480    2.00      341016         975
      8.780     17.560    2.00      341523         873
      8.820     17.640    2.00      340963         920
      8.860     17.720    2.00      341536         970
      8.900     17.800    2.00      341807         976
      8.940     17.880    2.00      341525         925
      8.980     17.960    2.00      342325         953
      9.020     18.040    2.00      341749         909
      9.060     18.120    2.00      341816         923
      9.100     18.200    2.00      342195         873
      9.140     18.280    2.00      342289         875
      9.180     18.360    2.00      341155         970
      9.220     18.440    2.00      341722         934
      9.260     18.520    2.00      340871         915
      9.300     18.600    2.00      341940         917
      9.340     18.680    2.00      341098         911
      9.380     18.760    2.00      339931         939
      9.420     18.840    2.00      341460         905
      9.460     18.920    2.00      340775         924
      9.500     19.000    2.00      340434         882
