's47hn039.cg1' 'Nov 30 2010 07:16' 'I'         30.    2  'TIME'   51  'RAW'
  Filename         Date            Scan       Mon    Prf  Base   #pts  Type
s47hn pt nafion in 0p1 m h2so4 potential is 0p1 v 
 460    1  500  512 608 512   0   5.0010     0.00000 0.00000   0.00000    1
 Collimation      Mosaic    Wavelength   T-Start   Incr.   H-field #Det    
  1       0.40000    0.00800    0.80000
  2       0.40000    0.00800    0.80000
  3       1.00000    0.02000    2.00000
  4       2.00000    0.04000    4.00000
  5       1.20000    0.02400    2.40000
  6       1.60000    0.03200    3.20000
 Mot:    Start       Step      End
     A1         A2         A3         A4       MIN      MONITOR      COUNTS 
      0.400      0.400      1.000      2.000    1.00       36006        1734
      0.408      0.408      1.020      2.040    1.00       36563        1746
      0.416      0.416      1.040      2.080    1.00       37096        1851
      0.424      0.424      1.060      2.120    1.00       37446        1813
      0.432      0.432      1.080      2.160    1.00       37712        1762
      0.440      0.440      1.100      2.200    1.00       38462        1529
      0.448      0.448      1.120      2.240    1.00       38706        1275
      0.456      0.456      1.140      2.280    1.00       39442         970
      0.464      0.464      1.160      2.320    1.00       40186         882
      0.472      0.472      1.180      2.360    1.00       40204         781
      0.480      0.480      1.200      2.400    1.00       40743         858
      0.488      0.488      1.220      2.440    1.00       41340         870
      0.496      0.496      1.240      2.480    1.00       42043         725
      0.504      0.504      1.260      2.520    1.00       42329         638
      0.512      0.512      1.280      2.560    1.00       43430         481
      0.520      0.520      1.300      2.600    1.00       43251         311
      0.528      0.528      1.320      2.640    1.00       43616         322
      0.536      0.536      1.340      2.680    1.00       44481         304
      0.544      0.544      1.360      2.720    1.00       45287         324
      0.552      0.552      1.380      2.760    1.00       45041         300
      0.560      0.560      1.400      2.800    1.00       45767         276
      0.568      0.568      1.420      2.840    1.00       45973         255
      0.576      0.576      1.440      2.880    1.00       46658         182
      0.584      0.584      1.460      2.920    1.00       47281         150
      0.592      0.592      1.480      2.960    1.00       47694         118
      0.600      0.600      1.500      3.000    1.00       48087          98
      0.608      0.608      1.520      3.040    1.00       48933         120
      0.616      0.616      1.540      3.080    1.00       49300         143
      0.624      0.624      1.560      3.120    1.00       49743         136
      0.632      0.632      1.580      3.160    1.00       50134         148
      0.640      0.640      1.600      3.200    1.00       50861         126
      0.648      0.648      1.620      3.240    1.00       51128         106
      0.656      0.656      1.640      3.280    1.00       51753          93
      0.664      0.664      1.660      3.320    1.00       52240         102
      0.672      0.672      1.680      3.360    1.00       52847         113
      0.680      0.680      1.700      3.400    1.00       53356         115
      0.688      0.688      1.720      3.440    1.00       54053         131
      0.696      0.696      1.740      3.480    1.00       54152         163
      0.704      0.704      1.760      3.520    1.00       55173         172
      0.712      0.712      1.780      3.560    1.00       55396         111
      0.720      0.720      1.800      3.600    1.00       56175         116
      0.728      0.728      1.820      3.640    1.00       56459         108
      0.736      0.736      1.840      3.680    1.00       57052         136
      0.744      0.744      1.860      3.720    1.00       57132         160
      0.752      0.752      1.880      3.760    1.00       58179         169
      0.760      0.760      1.900      3.800    1.00       58210         182
      0.768      0.768      1.920      3.840    1.00       59150         174
      0.776      0.776      1.940      3.880    1.00       58790         169
      0.784      0.784      1.960      3.920    1.00       59809         143
      0.792      0.792      1.980      3.960    1.00       60020         162
      0.800      0.800      2.000      4.000    1.00       60884         185
