'sd07w003.cg1' 'Dec  1 2010 17:02' 'I'         30.    1  'TIME'   51  'RAW'
  Filename         Date            Scan       Mon    Prf  Base   #pts  Type
sd07w sample sd07 pt_naf in water annealed at 210 
 460    1  500  512 608 512   0   5.0010     0.00000 0.00000   0.00000    1
 Collimation      Mosaic    Wavelength   T-Start   Incr.   H-field #Det    
  1       0.40000    0.00800    0.80000
  2       0.40000    0.00800    0.80000
  3       1.00000    0.02000    2.00000
  4       2.00000    0.04000    4.00000
  5       1.20000    0.02400    2.40000
  6       1.60000    0.03200    3.20000
 Mot:    Start       Step      End
     A1         A2         A3         A4       MIN      MONITOR      COUNTS 
      0.400      0.400      1.000      2.000    0.50       17841         138
      0.408      0.408      1.020      2.040    0.50       18129         245
      0.416      0.416      1.040      2.080    0.50       18576         267
      0.424      0.424      1.060      2.120    0.50       18710         344
      0.432      0.432      1.080      2.160    0.50       18595         303
      0.440      0.440      1.100      2.200    0.50       19392         303
      0.448      0.448      1.120      2.240    0.50       19170         284
      0.456      0.456      1.140      2.280    0.50       19685         243
      0.464      0.464      1.160      2.320    0.50       19632         212
      0.472      0.472      1.180      2.360    0.50       20193         195
      0.480      0.480      1.200      2.400    0.50       20238         227
      0.488      0.488      1.220      2.440    0.50       20685         235
      0.496      0.496      1.240      2.480    0.50       20776         292
      0.504      0.504      1.260      2.520    0.50       20979         332
      0.512      0.512      1.280      2.560    0.50       21231         295
      0.520      0.520      1.300      2.600    0.50       21634         307
      0.528      0.528      1.320      2.640    0.50       21829         277
      0.536      0.536      1.340      2.680    0.50       21925         263
      0.544      0.544      1.360      2.720    0.50       22272         242
      0.552      0.552      1.380      2.760    0.50       22785         226
      0.560      0.560      1.400      2.800    0.50       22633         181
      0.568      0.568      1.420      2.840    0.50       23030         189
      0.576      0.576      1.440      2.880    0.50       23216         202
      0.584      0.584      1.460      2.920    0.50       23569         191
      0.592      0.592      1.480      2.960    0.50       23709         222
      0.600      0.600      1.500      3.000    0.50       24154         220
      0.608      0.608      1.520      3.040    0.50       24171         226
      0.616      0.616      1.540      3.080    0.50       24619         196
      0.624      0.624      1.560      3.120    0.50       24814         151
      0.632      0.632      1.580      3.160    0.50       24913         134
      0.640      0.640      1.600      3.200    0.50       25267         142
      0.648      0.648      1.620      3.240    0.50       25542         115
      0.656      0.656      1.640      3.280    0.50       26027         123
      0.664      0.664      1.660      3.320    0.50       26053         108
      0.672      0.672      1.680      3.360    0.50       26249         117
      0.680      0.680      1.700      3.400    0.50       26552         112
      0.688      0.688      1.720      3.440    0.50       26545         126
      0.696      0.696      1.740      3.480    0.50       27228         123
      0.704      0.704      1.760      3.520    0.50       27202         112
      0.712      0.712      1.780      3.560    0.50       27623         116
      0.720      0.720      1.800      3.600    0.50       27601         115
      0.728      0.728      1.820      3.640    0.50       27725          82
      0.736      0.736      1.840      3.680    0.50       28427          99
      0.744      0.744      1.860      3.720    0.50       28287          78
      0.752      0.752      1.880      3.760    0.50       29036          98
      0.760      0.760      1.900      3.800    0.50       29041          64
      0.768      0.768      1.920      3.840    0.50       29222          51
      0.776      0.776      1.940      3.880    0.50       29387          73
      0.784      0.784      1.960      3.920    0.50       29890          62
      0.792      0.792      1.980      3.960    0.50       30203          78
      0.800      0.800      2.000      4.000    0.50       30082          72
